
#1
liczenie
obiekt�w (w)	udzia� punkt�w	pole obrazu(mm�)	
   39	100.00	12288.0000
nr.	x(pix.):	y(pix.):	x(mm):	y(mm):	powierzchnia:(mm�)	d�ugo��:(mm)	szeroko��:(mm)	k�t:(�)	obw�d:(mm)	obw�d C.:(mm)	�rednica Fereta H(mm)	�rednica Fereta V(mm)	�redn. Martina:(mm)	�redn. sitowa:(mm)	�rednia jaskrawo��	R	G	B	Y	
1	  69	 951	6.90000000	95.1000000	0.94000000	1.38924440	0.80622577	149.74	3.67183506	3.53449816	1.30000000	1.20000000	1.20000000	0.84852814	224.8	102.1	147.8	173.6	136.3	
2	 905	 911	90.5000000	91.1000000	0.98000000	1.42126704	0.78102497	50.71	3.52571830	3.38804386	1.10000000	1.20000000	0.90000000	0.82462113	225.8	98.6	142.7	155.5	130.3	
3	 318	 909	31.8000000	90.9000000	0.16000000	0.44721360	0.31622777	26.57	1.12267728	1.10486272	0.50000000	0.40000000	0.50000000	0.30000000	201.3	84.7	110.3	129.5	104.2	
4	1147	 820	114.700000	82.0000000	0.31000000	0.70710678	0.42426407	45.00	1.60633242	1.60241522	0.60000000	0.60000000	0.60000000	0.44721360	220.4	94.5	137.9	144.0	124.9	
5	1111	 772	111.100000	77.2000000	1.01000000	1.20415946	0.98994949	131.63	3.51422956	3.42832096	1.10000000	1.20000000	1.00000000	1.10000000	231.7	102.2	152.4	166.6	138.3	
6	 791	 768	79.1000000	76.8000000	0.31000000	0.58309519	0.44721360	120.96	1.60979425	1.60979425	0.60000000	0.60000000	0.60000000	0.50000000	214.6	108.0	149.3	159.8	137.4	
7	1050	 648	105.000000	64.8000000	0.21000000	0.58309519	0.31622777	59.04	1.43890504	1.23983456	0.50000000	0.60000000	0.50000000	0.40000000	196.8	92.1	125.4	126.6	115.0	
8	 897	 629	89.7000000	62.9000000	1.30000000	1.74642492	0.80622577	13.24	4.36844492	4.22938358	1.80000000	1.00000000	1.80000000	0.90000000	232.0	93.5	135.1	148.3	123.5	
9	 976	 630	97.6000000	63.0000000	0.39000000	0.76157731	0.41231056	23.20	1.87986164	1.87594443	0.80000000	0.60000000	0.70000000	0.50000000	212.0	98.2	139.9	144.4	127.4	
10	 466	 623	46.6000000	62.3000000	0.69000000	1.20830460	0.63245553	24.44	2.89404096	2.88401337	1.20000000	0.80000000	1.00000000	0.70000000	226.7	111.0	158.2	170.9	144.8	
11	 387	 621	38.7000000	62.1000000	0.50000000	0.86023253	0.58309519	144.46	2.31038271	2.26737456	0.90000000	0.80000000	0.90000000	0.64031242	219.1	103.5	146.7	162.8	134.9	
12	 338	 577	33.8000000	57.7000000	1.15000000	1.25299641	0.98488578	61.39	3.53926555	3.48582187	1.20000000	1.20000000	1.20000000	1.10000000	230.8	111.3	153.9	168.6	142.1	
13	 999	 546	99.9000000	54.6000000	0.22000000	0.53851648	0.31622777	68.20	1.32912679	1.32912679	0.60000000	0.60000000	0.60000000	0.42426407	192.1	91.5	125.4	129.5	115.1	
14	1176	 533	117.600000	53.3000000	0.13000000	0.42426407	0.28284271	45.00	0.88929222	0.88929222	0.40000000	0.40000000	0.40000000	0.36055513	187.6	84.1	112.5	117.5	103.9	
15	 357	 481	35.7000000	48.1000000	0.24000000	0.53851648	0.30000000	21.80	1.42455231	1.42455231	0.60000000	0.50000000	0.60000000	0.40000000	208.8	94.5	128.0	143.7	119.2	
16	 709	 468	70.9000000	46.8000000	0.28000000	0.58309519	0.36055513	30.96	1.55859464	1.54078008	0.60000000	0.60000000	0.60000000	0.58309519	206.9	96.5	125.7	136.6	117.6	
17	 151	 437	15.1000000	43.7000000	0.67000000	1.08166538	0.58309519	56.31	3.00060445	2.88466493	1.00000000	1.10000000	0.90000000	0.67082039	220.5	99.5	146.2	169.0	134.1	
18	 516	 418	51.6000000	41.8000000	1.16000000	1.43178211	0.98488578	114.78	4.13115189	3.86648080	1.20000000	1.40000000	0.90000000	1.11803399	227.9	108.8	151.1	165.6	139.5	
19	 707	 368	70.7000000	36.8000000	0.42000000	0.89442719	0.44721360	26.57	2.02625341	2.00105982	0.90000000	0.60000000	0.80000000	0.50000000	216.7	115.0	158.6	170.5	146.2	
20	 800	 307	80.0000000	30.7000000	0.57000000	0.94339811	0.67082039	147.99	2.48351598	2.46570142	0.90000000	0.80000000	0.80000000	0.70000000	223.0	94.2	131.6	141.5	121.0	
21	 867	 287	86.7000000	28.7000000	1.29000000	1.56204994	1.00000000	39.81	4.11024268	3.92845946	1.40000000	1.20000000	1.40000000	1.08166538	232.2	100.4	142.1	156.3	130.6	
22	 468	 284	46.8000000	28.4000000	1.42000000	1.62788206	1.00498756	10.62	4.43507724	4.28949788	1.70000000	1.00000000	1.60000000	0.90000000	232.4	114.6	160.7	178.4	148.2	
23	 162	 273	16.2000000	27.3000000	0.78000000	1.20830460	0.72801099	24.44	3.06515846	2.99621310	1.20000000	0.80000000	1.20000000	0.70000000	228.9	96.6	137.5	158.4	127.0	
25	1003	 235	100.300000	23.5000000	0.42000000	0.80622577	0.53851648	119.74	2.10393320	2.05700784	0.70000000	0.80000000	0.70000000	0.60000000	212.8	106.3	149.9	164.6	137.8	
26	 273	 226	27.3000000	22.6000000	0.63000000	1.07703296	0.53851648	158.20	2.72991738	2.70080658	1.10000000	0.70000000	1.10000000	0.60000000	229.1	106.0	148.3	169.9	137.3	
27	 257	 175	25.7000000	17.5000000	1.68000000	2.36008474	0.86023253	126.38	5.98382021	5.41743153	1.80000000	2.00000000	0.90000000	0.86023253	229.0	101.8	147.2	167.4	135.2	
28	 135	 155	13.5000000	15.5000000	0.93000000	1.25299641	0.89442719	61.39	3.51975108	3.32373710	1.00000000	1.20000000	0.90000000	0.90000000	225.8	87.9	128.3	153.3	118.3	
29	1192	 124	119.200000	12.4000000	0.74000000	1.02956301	0.80622577	119.05	2.88884345	2.82579178	1.00000000	1.00000000	1.00000000	0.90000000	217.5	101.6	153.7	168.8	139.1	
30	 579	 107	57.9000000	10.7000000	1.01000000	1.47648231	0.67082039	28.30	3.62568095	3.58158391	1.40000000	1.20000000	1.30000000	0.80622577	224.8	106.5	151.5	171.7	139.5	
31	 718	  83	71.8000000	8.30000000	0.61000000	1.02956301	0.53851648	150.95	2.62603799	2.60375041	1.10000000	0.80000000	1.00000000	0.67082039	224.5	111.0	154.7	171.1	142.7	
32	1233	  39	123.300000	3.90000000	0.37000000	0.80622577	0.44721360	119.74	1.96989087	1.95207631	0.60000000	0.80000000	0.60000000	0.53851648	209.6	98.1	139.3	153.5	127.9	
33	1241	  14	124.100000	1.40000000	0.35000000	0.64031242	0.50000000	141.34	1.85039379	1.83257923	0.70000000	0.60000000	0.70000000	0.50000000	215.0	93.8	136.3	158.0	125.4	

#2
liczenie
obiekt�w (w)	udzia� punkt�w	pole obrazu(mm�)	
   38	100.00	12288.0000
nr.	x(pix.):	y(pix.):	x(mm):	y(mm):	powierzchnia:(mm�)	d�ugo��:(mm)	szeroko��:(mm)	k�t:(�)	obw�d:(mm)	obw�d C.:(mm)	�rednica Fereta H(mm)	�rednica Fereta V(mm)	�redn. Martina:(mm)	�redn. sitowa:(mm)	�rednia jaskrawo��	R	G	B	Y	
1	 509	 949	50.9000000	94.9000000	0.29000000	0.72111026	0.36055513	56.31	1.72912679	1.68611864	0.60000000	0.70000000	0.40000000	0.44721360	208.6	62.8	94.3	122.7	87.5	
2	  81	 933	8.10000000	93.3000000	0.65000000	1.08166538	0.72111026	146.31	2.62218960	2.58656048	1.00000000	0.80000000	1.00000000	0.70000000	226.9	89.7	138.9	180.7	128.0	
3	1139	 925	113.900000	92.5000000	0.48000000	0.89442719	0.41231056	63.43	2.50630096	2.36554154	0.80000000	0.90000000	0.70000000	0.53851648	218.5	85.7	136.6	177.6	125.1	
4	 556	 922	55.6000000	92.2000000	1.20000000	1.55241747	0.82462113	165.07	3.90442054	3.80622791	1.60000000	1.00000000	1.50000000	1.01980390	230.8	100.5	158.0	190.3	143.6	
5	 678	 909	67.8000000	90.9000000	0.12000000	0.36055513	0.14142136	146.31	1.08191319	0.99907048	0.40000000	0.40000000	0.30000000	0.28284271	184.9	64.7	88.9	120.8	84.7	
6	 809	 883	80.9000000	88.3000000	2.79000000	3.90512484	0.80622577	76.68	8.59771311	8.41339527	1.60000000	3.80000000	0.80000000	0.94868330	232.7	65.6	106.4	136.8	96.9	
7	1064	 828	106.400000	82.8000000	7.08000000	12.7236001	0.94868330	113.14	27.8825513	25.8479131	5.30000000	11.8000000	0.80000000	1.07703296	223.6	74.1	118.0	154.3	108.2	
8	 239	 860	23.9000000	86.0000000	0.54000000	0.94339811	0.63245553	147.99	2.40459047	2.39721144	0.90000000	0.70000000	0.90000000	0.60000000	219.2	91.2	142.9	180.4	130.8	
9	   8	 803	0.80000000	80.3000000	0.52000000	0.82462113	0.70710678	165.96	2.30646550	2.27970489	0.90000000	0.80000000	0.80000000	0.70000000	217.0	83.3	128.0	165.9	118.1	
10	1085	 733	108.500000	73.3000000	3.02000000	7.23394775	0.80000000	84.45	15.0986380	14.8184843	1.10000000	7.30000000	0.40000000	0.90553851	221.2	65.2	103.5	134.1	94.8	
11	 673	 755	67.3000000	75.5000000	0.66000000	1.08166538	0.72111026	146.31	2.73488780	2.65849460	1.00000000	0.80000000	1.00000000	0.70000000	227.3	90.3	143.7	175.9	130.6	
12	1011	 731	101.100000	73.1000000	0.43000000	0.80622577	0.44721360	60.26	1.99446370	1.99446370	0.60000000	0.80000000	0.60000000	0.50000000	218.7	90.0	143.0	176.7	130.1	
13	1046	 717	104.600000	71.7000000	0.10000000	0.31622777	0.10000000	161.57	0.79907048	0.79907048	0.40000000	0.30000000	0.40000000	0.20000000	187.0	63.8	94.0	125.3	87.9	
14	1069	 682	106.900000	68.2000000	1.27000000	2.54558441	0.56568542	45.00	5.31711625	5.23378600	1.90000000	1.90000000	0.80000000	0.64031242	228.9	72.0	114.1	149.2	104.7	
15	 326	 676	32.6000000	67.6000000	0.70000000	1.07703296	0.76157731	111.80	2.90336071	2.85643536	0.80000000	1.10000000	0.70000000	0.70000000	224.0	93.6	148.4	185.2	135.3	
16	 602	 671	60.2000000	67.1000000	1.91000000	2.28473193	0.94868330	23.20	5.61470038	5.20032950	2.20000000	1.20000000	2.10000000	0.98488578	238.1	114.6	175.1	197.6	158.7	
17	1023	 625	102.300000	62.5000000	6.23000000	11.8713942	1.16619038	55.64	24.7711663	23.9460733	6.80000000	9.90000000	0.80000000	1.22065556	230.5	72.4	115.0	147.6	105.2	
20	 772	 586	77.2000000	58.6000000	1.49000000	2.21359436	0.72801099	71.57	4.96936059	4.90999035	1.00000000	2.20000000	0.80000000	0.82462113	231.4	79.4	128.5	162.4	116.8	
21	 201	 567	20.1000000	56.7000000	0.33000000	0.70710678	0.50000000	171.87	1.80117066	1.79669763	0.80000000	0.60000000	0.80000000	0.58309519	214.1	83.0	123.3	151.3	113.8	
22	 288	 548	28.8000000	54.8000000	0.59000000	1.04403065	0.60827625	163.30	2.52557431	2.52557431	1.10000000	0.60000000	1.10000000	0.50000000	229.8	84.7	132.2	169.7	121.4	
23	1241	 541	124.100000	54.1000000	0.11000000	0.36055513	0.14142136	56.31	0.90710678	0.88929222	0.40000000	0.40000000	0.30000000	0.28284271	189.3	62.5	93.1	126.1	87.0	
25	 629	 411	62.9000000	41.1000000	0.67000000	1.16619038	0.53851648	59.04	2.76497533	2.76050231	1.00000000	1.10000000	0.70000000	0.70710678	224.6	89.1	138.1	171.0	126.4	
26	 782	 389	78.2000000	38.9000000	0.50000000	0.92195445	0.42426407	49.40	2.29089501	2.26860742	0.90000000	0.80000000	0.80000000	0.56568542	220.9	75.3	117.2	153.8	108.1	
27	 190	 376	19.0000000	37.6000000	0.49000000	0.86023253	0.58309519	35.54	2.22325948	2.16468083	0.80000000	0.80000000	0.80000000	0.70710678	220.3	76.9	119.3	158.6	110.3	
28	 750	 367	75.0000000	36.7000000	0.51000000	0.80622577	0.58309519	29.74	2.27090520	2.25309064	0.80000000	0.80000000	0.80000000	0.58309519	222.6	92.1	141.8	172.0	129.6	
29	 161	 363	16.1000000	36.3000000	0.67000000	1.08166538	0.58309519	33.69	2.75133930	2.70676413	1.00000000	0.90000000	1.00000000	0.72111026	225.6	76.3	120.9	157.0	110.8	
30	 719	 327	71.9000000	32.7000000	4.64000000	7.14212853	0.56568542	135.57	15.7605208	14.7802410	5.40000000	5.20000000	1.00000000	0.78102497	226.8	65.3	101.4	124.0	92.5	
34	 717	 309	71.7000000	30.9000000	1.16000000	1.80277564	0.72801099	19.44	4.07200819	4.02360375	1.80000000	0.90000000	1.60000000	0.82462113	234.1	86.8	135.5	165.9	123.5	
36	 368	 280	36.8000000	28.0000000	1.30000000	1.93132079	0.76157731	68.75	4.60127771	4.43439519	1.10000000	1.90000000	0.80000000	0.82462113	228.7	79.8	131.2	170.0	119.3	
37	 619	 251	61.9000000	25.1000000	0.74000000	1.11803399	0.67082039	26.57	2.81620291	2.78653629	1.10000000	0.80000000	1.00000000	0.70000000	230.1	88.5	137.4	173.1	126.0	
38	 235	 246	23.5000000	24.6000000	0.41000000	0.72111026	0.58309519	33.69	1.95226882	1.92707523	0.70000000	0.70000000	0.70000000	0.60000000	217.7	94.1	143.1	178.0	131.5	
39	 527	 244	52.7000000	24.4000000	0.31000000	0.64031242	0.42426407	38.66	1.60979425	1.60979425	0.60000000	0.60000000	0.60000000	0.56568542	209.9	65.8	97.9	132.9	91.5	
40	  19	 178	1.90000000	17.8000000	1.13000000	1.39283883	0.92195445	21.04	4.21574777	3.61269128	1.40000000	1.00000000	1.40000000	0.90000000	230.8	74.5	116.6	129.9	104.9	
41	 321	 149	32.1000000	14.9000000	0.57000000	0.86023253	0.64031242	54.46	2.43752015	2.39451200	0.90000000	0.80000000	0.90000000	0.70000000	226.6	84.3	135.4	171.9	123.4	
42	 444	 139	44.4000000	13.9000000	0.73000000	1.14017543	0.70710678	74.74	2.83224755	2.80705396	0.80000000	1.20000000	0.80000000	0.70000000	225.7	79.4	128.9	166.9	117.6	
43	 422	  59	42.2000000	5.90000000	0.53000000	0.86023253	0.58309519	35.54	2.24330300	2.24330300	0.80000000	0.80000000	0.80000000	0.70000000	223.9	85.9	130.5	168.5	120.7	
44	 733	  11	73.3000000	1.10000000	0.30000000	0.58309519	0.44721360	149.04	1.62109048	1.61371145	0.60000000	0.60000000	0.60000000	0.50000000	210.3	62.7	95.7	132.6	89.3	

#3
liczenie
obiekt�w (w)	udzia� punkt�w	pole obrazu(mm�)	
   54	100.00	12288.0000
nr.	x(pix.):	y(pix.):	x(mm):	y(mm):	powierzchnia:(mm�)	d�ugo��:(mm)	szeroko��:(mm)	k�t:(�)	obw�d:(mm)	obw�d C.:(mm)	�rednica Fereta H(mm)	�rednica Fereta V(mm)	�redn. Martina:(mm)	�redn. sitowa:(mm)	�rednia jaskrawo��	R	G	B	Y	
1	 136	 915	13.6000000	91.5000000	0.64000000	1.17046999	0.60827625	19.98	2.80084440	2.79505329	1.20000000	0.80000000	1.00000000	0.63245553	222.2	81.0	125.6	159.0	115.2	
2	 762	 887	76.2000000	88.7000000	1.25000000	2.22036033	0.50000000	125.84	5.26245902	4.91040337	1.60000000	1.90000000	0.80000000	0.67082039	219.3	82.6	128.6	152.2	116.8	
3	  46	 874	4.60000000	87.4000000	0.40000000	0.76157731	0.53851648	23.20	2.02625341	2.00105982	0.80000000	0.60000000	0.80000000	0.50000000	218.2	106.7	155.7	174.6	142.4	
4	 406	 854	40.6000000	85.4000000	2.01000000	2.69258240	0.94339811	148.67	6.24522199	5.87310252	2.40000000	1.80000000	1.50000000	1.00000000	225.4	101.4	158.8	185.5	143.9	
5	 482	 850	48.2000000	85.0000000	0.49000000	0.89442719	0.53851648	153.43	2.24640777	2.22121418	0.90000000	0.70000000	0.80000000	0.60000000	215.4	101.2	156.9	181.1	142.2	
6	 893	 827	89.3000000	82.7000000	0.93000000	1.42126704	0.78102497	50.71	3.60096151	3.44580540	1.10000000	1.30000000	1.00000000	0.94339811	228.1	100.4	161.6	188.2	145.4	
7	  41	 810	4.10000000	81.0000000	0.56000000	1.02956301	0.63245553	119.05	2.65720035	2.56270435	0.70000000	1.00000000	0.60000000	0.60000000	221.2	84.2	129.4	160.0	118.6	
8	 134	 746	13.4000000	74.6000000	0.60000000	1.08166538	0.58309519	56.31	2.62016096	2.56141204	0.90000000	1.00000000	0.80000000	0.76157731	225.8	84.7	136.2	169.4	123.7	
9	 244	 731	24.4000000	73.1000000	0.15000000	0.42426407	0.28284271	45.00	0.98125592	0.98125592	0.40000000	0.40000000	0.40000000	0.30000000	206.2	82.1	117.5	133.7	108.1	
10	 149	 715	14.9000000	71.5000000	0.51000000	0.82462113	0.70710678	165.96	2.37242318	2.32784801	0.90000000	0.80000000	0.90000000	0.70000000	215.5	113.4	168.3	182.4	152.6	
11	 710	 697	71.0000000	69.7000000	1.05000000	1.43178211	0.76157731	24.78	3.93443135	3.71386075	1.40000000	1.20000000	1.40000000	0.86023253	227.3	97.2	155.3	181.5	140.0	
12	 657	 640	65.7000000	64.0000000	2.54000000	3.33766385	0.80622577	98.62	7.72616392	7.33363019	1.20000000	3.40000000	0.80000000	0.92195445	230.6	85.0	138.8	168.5	125.3	
13	 884	 646	88.4000000	64.6000000	0.46000000	0.78102497	0.50000000	39.81	2.08220143	2.07482240	0.80000000	0.70000000	0.80000000	0.60000000	218.9	103.4	163.3	183.3	146.8	
14	 249	 643	24.9000000	64.3000000	1.06000000	1.52643375	0.76157731	148.39	3.72705232	3.65495232	1.40000000	1.10000000	1.40000000	0.86023253	228.5	101.1	163.8	190.3	147.2	
15	 979	 632	97.9000000	63.2000000	0.55000000	0.94339811	0.58309519	122.01	2.44136854	2.42504345	0.90000000	0.90000000	0.80000000	0.67082039	213.3	99.5	157.1	179.0	141.5	
16	 423	 610	42.3000000	61.0000000	0.30000000	0.64031242	0.36055513	141.34	1.78378823	1.74078008	0.70000000	0.60000000	0.60000000	0.50000000	210.7	69.0	105.7	136.1	97.5	
17	 689	 561	68.9000000	56.1000000	0.41000000	0.76157731	0.50990195	66.80	2.06514559	1.98230288	0.70000000	0.80000000	0.60000000	0.56568542	215.1	93.6	146.2	170.8	132.5	
18	 573	 528	57.3000000	52.8000000	0.77000000	1.20415946	0.56568542	41.63	3.05789026	2.96665732	1.10000000	1.00000000	1.00000000	0.78102497	225.6	101.3	156.8	176.5	141.6	
19	 792	 520	79.2000000	52.0000000	0.43000000	0.82462113	0.50000000	14.04	2.12691068	2.09128157	0.90000000	0.60000000	0.80000000	0.50000000	218.8	106.4	163.3	181.0	147.5	
20	1103	 498	110.300000	49.8000000	1.55000000	4.58039300	1.08166538	36.12	10.6001899	9.81042492	3.80000000	3.00000000	0.40000000	1.22065556	215.4	70.3	108.6	127.6	98.7	
21	 456	 492	45.6000000	49.2000000	0.64000000	1.20830460	0.63245553	24.44	2.65892937	2.65892937	1.20000000	0.60000000	1.20000000	0.50000000	226.3	105.1	162.3	184.6	146.9	
22	 789	 475	78.9000000	47.5000000	0.22000000	0.58309519	0.36055513	30.96	1.36755107	1.34973652	0.60000000	0.40000000	0.60000000	0.30000000	221.3	87.9	131.5	156.0	120.6	
23	 871	 454	87.1000000	45.4000000	0.23000000	0.53851648	0.30000000	158.20	1.44628407	1.42846952	0.60000000	0.50000000	0.60000000	0.40000000	209.3	70.5	110.1	138.3	100.9	
24	 410	 449	41.0000000	44.9000000	0.16000000	0.42426407	0.28284271	135.00	0.96344136	0.96344136	0.40000000	0.40000000	0.40000000	0.30000000	212.8	86.4	121.9	143.1	112.9	
25	 514	 435	51.4000000	43.5000000	1.84000000	2.96816442	0.67082039	122.62	6.78405628	6.43201194	1.80000000	2.60000000	0.80000000	0.78102497	223.5	92.5	146.0	176.6	132.6	
26	 841	 444	84.1000000	44.4000000	0.26000000	0.53851648	0.31622777	111.80	1.53650582	1.51869126	0.60000000	0.60000000	0.60000000	0.53851648	214.6	82.7	121.7	150.2	112.5	
27	 516	 392	51.6000000	39.2000000	0.20000000	0.44721360	0.44721360	116.57	1.30486272	1.28704816	0.50000000	0.50000000	0.50000000	0.40000000	211.8	77.2	114.8	134.2	105.1	
28	 581	 299	58.1000000	29.9000000	0.61000000	1.02956301	0.58309519	150.95	2.60991794	2.55133930	1.00000000	0.80000000	1.00000000	0.70000000	219.1	100.7	156.3	178.5	141.3	
29	1036	 289	103.600000	28.9000000	0.67000000	1.14017543	0.60827625	105.26	3.01225774	2.83193795	0.80000000	1.20000000	0.60000000	0.63245553	217.3	87.9	141.3	168.7	127.7	
30	 743	 281	74.3000000	28.1000000	0.58000000	0.92195445	0.70000000	12.53	2.50981023	2.48304961	1.00000000	0.80000000	1.00000000	0.70000000	215.7	126.6	182.7	194.7	166.5	
31	1196	 243	119.600000	24.3000000	0.14000000	0.42426407	0.28284271	45.00	0.99907048	0.98125592	0.40000000	0.40000000	0.40000000	0.30000000	202.6	70.3	104.4	134.1	96.9	
32	  58	 219	5.80000000	21.9000000	0.47000000	0.78102497	0.56568542	39.81	2.36158232	2.18453185	0.80000000	0.80000000	0.80000000	0.67082039	220.7	76.4	114.1	148.7	106.1	
33	  11	 183	1.10000000	18.3000000	1.08000000	2.87923601	0.63245553	69.68	6.29549904	6.00471718	1.20000000	2.80000000	0.50000000	0.63245553	212.2	65.5	98.2	121.8	90.5	
34	1066	 178	106.600000	17.8000000	1.04000000	1.20830460	1.07703296	155.56	3.40602870	3.35258503	1.20000000	1.00000000	1.20000000	0.90000000	226.2	114.3	173.2	189.8	156.6	
35	1211	 168	121.100000	16.8000000	0.35000000	0.76157731	0.44721360	156.80	1.85925191	1.84143735	0.80000000	0.60000000	0.70000000	0.50000000	214.1	90.0	141.5	168.6	128.3	
36	 636	 163	63.6000000	16.3000000	0.58000000	0.89442719	0.53851648	26.57	2.40494752	2.38713297	0.90000000	0.80000000	0.90000000	0.70000000	223.3	93.5	147.4	175.3	133.7	
37	 457	 135	45.7000000	13.5000000	3.28000000	4.68187996	0.94868330	160.02	10.4308123	10.0383977	4.50000000	2.20000000	1.80000000	0.94868330	233.6	90.8	145.5	178.9	132.1	
38	 209	  31	20.9000000	3.10000000	0.40000000	0.72801099	0.40000000	15.95	2.09481221	1.99415494	0.80000000	0.70000000	0.70000000	0.56568542	215.2	83.0	130.1	164.6	119.1	
39	  76	  17	7.60000000	1.70000000	0.62000000	0.94339811	0.58309519	32.01	2.61413849	2.53129578	0.90000000	0.80000000	0.80000000	0.70000000	226.7	121.9	178.1	199.8	162.9	
40	 661	  17	66.1000000	1.70000000	0.43000000	0.80622577	0.44721360	60.26	2.02016096	2.02016096	0.70000000	0.80000000	0.70000000	0.60000000	215.2	87.9	136.5	161.4	124.0	
41	 852	  17	85.2000000	1.70000000	0.54000000	1.14017543	0.42426407	37.87	2.36708944	2.32698730	1.00000000	0.80000000	0.80000000	0.56568542	225.2	91.3	143.2	176.2	130.5	
42	 110	  14	11.0000000	1.40000000	0.66000000	1.25299641	0.58309519	61.39	3.03107722	2.95237440	0.80000000	1.20000000	0.60000000	0.72801099	221.3	77.5	119.0	153.6	109.7	

#4
liczenie
